TITLE	unfiltered tris buffer 200uL
DATA TYPE	
ORIGIN	JASCO
OWNER	
DATE	23/07/26
TIME	11:27:38
SPECTROMETER/DATA SYSTEM	JASCO Corp., J-810, Rev. 1.00
RESOLUTION	
DELTAX	-0.2
XUNITS	NANOMETERS
YUNITS	CD[mdeg]
Y2UNITS	HT[V]
Y3UNITS	ABSORBANCE
FIRSTX	400.0000
LASTX	250.0000
NPOINTS	751
FIRSTY	3.42217
MAXY	19.84917
MINY	2.89672
XYDATA
400.0000	3.42217	279.121	1.02425
399.8000	3.39126	278.992	1.02282
399.6000	3.3401	278.901	1.0218
399.4000	3.30799	278.823	1.02093
399.2000	3.27181	278.717	1.01975
399.0000	3.24004	278.612	1.01858
398.8000	3.2121	278.496	1.01729
398.6000	3.1973	278.383	1.01602
398.4000	3.21497	278.267	1.01473
398.2000	3.21294	278.156	1.0135
398.0000	3.20762	278.021	1.01199
397.8000	3.19731	277.928	1.01073
397.6000	3.20795	277.854	1.00977
397.4000	3.22239	277.754	1.00847
397.2000	3.1952	277.691	1.00766
397.0000	3.1936	277.655	1.00719
396.8000	3.17489	277.611	1.00661
396.6000	3.17123	277.591	1.00635
396.4000	3.15041	277.594	1.00639
396.2000	3.12959	277.576	1.00617
396.0000	3.12021	277.607	1.00656
395.8000	3.10327	277.636	1.00693
395.6000	3.08132	277.657	1.00721
395.4000	3.10536	277.696	1.00771
395.2000	3.08905	277.754	1.00847
395.0000	3.0942	277.803	1.00911
394.8000	3.12522	277.879	1.01009
394.6000	3.10052	277.965	1.01121
394.4000	3.0969	278.014	1.01186
394.2000	3.0885	278.068	1.01251
394.0000	3.08142	278.135	1.01326
393.8000	3.05278	278.13	1.01321
393.6000	3.02861	278.159	1.01353
393.4000	3.00052	278.18	1.01377
393.2000	2.99575	278.152	1.01345
393.0000	2.99009	278.171	1.01367
392.8000	2.98427	278.202	1.01401
392.6000	2.99552	278.179	1.01376
392.4000	3.01115	278.198	1.01396
392.2000	2.9872	278.226	1.01428
392.0000	2.99734	278.234	1.01437
391.8000	2.99539	278.281	1.01489
391.6000	3.01581	278.291	1.015
391.4000	3.01715	278.297	1.01507
391.2000	3.00612	278.342	1.01557
391.0000	3.04869	278.366	1.01584
390.8000	3.04882	278.37	1.01589
390.6000	3.05023	278.405	1.01627
390.4000	3.03498	278.384	1.01604
390.2000	3.01836	278.414	1.01637
390.0000	3.00065	278.447	1.01674
389.8000	2.9671	278.43	1.01655
389.6000	2.9697	278.45	1.01678
389.4000	2.97577	278.456	1.01684
389.2000	2.94852	278.46	1.01688
389.0000	2.92903	278.5	1.01733
388.8000	2.92032	278.51	1.01745
388.6000	2.94803	278.526	1.01762
388.4000	2.98226	278.563	1.01803
388.2000	2.93747	278.546	1.01785
388.0000	2.93409	278.565	1.01805
387.8000	2.96535	278.583	1.01826
387.6000	2.97928	278.55	1.01789
387.4000	2.99447	278.563	1.01804
387.2000	2.97431	278.557	1.01797
387.0000	2.97808	278.541	1.01779
386.8000	2.99854	278.555	1.01794
386.6000	2.99498	278.54	1.01778
386.4000	2.98364	278.536	1.01774
386.2000	2.98785	278.557	1.01797
386.0000	2.9798	278.528	1.01765
385.8000	3.00375	278.53	1.01767
385.6000	2.99854	278.514	1.01748
385.4000	2.99503	278.471	1.01701
385.2000	3.00753	278.457	1.01686
385.0000	2.99882	278.389	1.0161
384.8000	3.03541	278.328	1.01541
384.6000	3.00594	278.268	1.01474
384.4000	2.96755	278.194	1.01392
384.2000	2.95206	278.167	1.01362
384.0000	2.91816	278.123	1.01312
383.8000	2.91061	278.067	1.0125
383.6000	2.90099	278.041	1.01217
383.4000	2.89672	277.98	1.01144
383.2000	2.91469	277.969	1.01127
383.0000	2.94375	277.928	1.01074
382.8000	2.9754	277.866	1.00992
382.6000	2.98378	277.844	1.00964
382.4000	2.97182	277.791	1.00894
382.2000	2.978	277.753	1.00845
382.0000	2.97609	277.715	1.00796
381.8000	2.99497	277.667	1.00733
381.6000	2.9915	277.653	1.00716
381.4000	2.98912	277.603	1.00651
381.2000	2.99476	277.567	1.00605
381.0000	3.00309	277.546	1.00577
380.8000	3.00324	277.5	1.00518
380.6000	3.02489	277.489	1.00504
380.4000	2.99103	277.438	1.00437
380.2000	2.99661	277.403	1.00392
380.0000	3.0108	277.38	1.00361
379.8000	3.01281	277.324	1.00289
379.6000	3.01158	277.303	1.00262
379.4000	3.00271	277.255	1.002
379.2000	2.98825	277.235	1.00174
379.0000	3.00637	277.211	1.00143
378.8000	3.01692	277.175	1.00096
378.6000	3.04063	277.152	1.00066
378.4000	3.01841	277.13	1.00037
378.2000	3.02886	277.118	1.00022
378.0000	3.04331	277.089	0.999842
377.8000	3.0704	277.06	0.999475
377.6000	3.04128	277.057	0.999435
377.4000	3.02508	277.042	0.999234
377.2000	3.04317	277.047	0.999299
377.0000	3.04715	277.014	0.998875
376.8000	3.0396	277.003	0.998729
376.6000	3.05225	276.986	0.998513
376.4000	3.06823	276.952	0.998065
376.2000	3.10003	276.929	0.997771
376.0000	3.10861	276.892	0.997289
375.8000	3.12143	276.874	0.997059
375.6000	3.11527	276.853	0.996785
375.4000	3.11714	276.829	0.996466
375.2000	3.1376	276.819	0.996338
375.0000	3.14617	276.796	0.996038
374.8000	3.16104	276.786	0.995919
374.6000	3.16817	276.774	0.995759
374.4000	3.18143	276.769	0.9957
374.2000	3.18536	276.747	0.995409
374.0000	3.21253	276.72	0.995056
373.8000	3.20658	276.692	0.994695
373.6000	3.18254	276.668	0.99439
373.4000	3.179	276.647	0.994114
373.2000	3.18199	276.603	0.993539
373.0000	3.21796	276.557	0.99295
372.8000	3.23475	276.523	0.992503
372.6000	3.23918	276.505	0.992271
372.4000	3.27152	276.455	0.991617
372.2000	3.30353	276.402	0.990932
372.0000	3.28731	276.363	0.990426
371.8000	3.29438	276.333	0.990033
371.6000	3.28279	276.323	0.989911
371.4000	3.30454	276.29	0.989481
371.2000	3.30104	276.27	0.989228
371.0000	3.3193	276.257	0.989056
370.8000	3.34119	276.269	0.989207
370.6000	3.36775	276.254	0.989018
370.4000	3.34811	276.247	0.988922
370.2000	3.38424	276.216	0.988522
370.0000	3.37977	276.193	0.988227
369.8000	3.38002	276.159	0.987782
369.6000	3.39549	276.132	0.987432
369.4000	3.4112	276.105	0.987078
369.2000	3.40809	276.086	0.98683
369.0000	3.40692	276.045	0.986306
368.8000	3.40112	276.027	0.986075
368.6000	3.41164	276.003	0.985763
368.4000	3.42169	276.001	0.985731
368.2000	3.42873	275.992	0.985618
368.0000	3.42019	275.982	0.985484
367.8000	3.44387	275.969	0.985322
367.6000	3.42894	275.969	0.985324
367.4000	3.44035	275.969	0.985317
367.2000	3.44981	275.966	0.985279
367.0000	3.45845	275.96	0.985203
366.8000	3.48396	275.934	0.984868
366.6000	3.50185	275.93	0.984817
366.4000	3.51221	275.907	0.984513
366.2000	3.56635	275.899	0.984415
366.0000	3.58559	275.869	0.984019
365.8000	3.58664	275.858	0.983878
365.6000	3.59604	275.843	0.983685
365.4000	3.60751	275.83	0.983513
365.2000	3.66168	275.812	0.983279
365.0000	3.70467	275.809	0.98324
364.8000	3.69694	275.801	0.983137
364.6000	3.73177	275.802	0.983146
364.4000	3.75154	275.79	0.983001
364.2000	3.78875	275.797	0.983089
364.0000	3.79696	275.795	0.983056
363.8000	3.8133	275.805	0.98319
363.6000	3.83541	275.798	0.983094
363.4000	3.89404	275.803	0.983164
363.2000	3.9137	275.785	0.982927
363.0000	3.93178	275.782	0.982897
362.8000	3.96057	275.771	0.982754
362.6000	4.00316	275.771	0.982753
362.4000	4.03875	275.752	0.982502
362.2000	4.06059	275.739	0.982338
362.0000	4.06667	275.734	0.982264
361.8000	4.09124	275.748	0.982456
361.6000	4.11787	275.74	0.982352
361.4000	4.13029	275.748	0.982446
361.2000	4.14818	275.745	0.982417
361.0000	4.16289	275.763	0.982642
360.8000	4.22254	275.755	0.982546
360.6000	4.26291	275.763	0.982649
360.4000	4.29758	275.739	0.982332
360.2000	4.32181	275.749	0.982471
360.0000	4.36067	275.73	0.982223
359.8000	4.39098	275.738	0.982323
359.6000	4.41001	275.735	0.98228
359.4000	4.43892	275.751	0.982495
359.2000	4.46711	275.742	0.98237
359.0000	4.53296	275.754	0.982526
358.8000	4.57582	275.758	0.982588
358.6000	4.62103	275.763	0.982647
358.4000	4.65558	275.765	0.98267
358.2000	4.69895	275.769	0.982722
358.0000	4.71289	275.779	0.982852
357.8000	4.76484	275.796	0.983079
357.6000	4.82081	275.818	0.983357
357.4000	4.87087	275.802	0.983149
357.2000	4.9324	275.821	0.983397
357.0000	4.97966	275.814	0.983308
356.8000	4.99527	275.828	0.983491
356.6000	5.03664	275.819	0.983369
356.4000	5.08616	275.817	0.983344
356.2000	5.09724	275.812	0.983275
356.0000	5.10058	275.829	0.983505
355.8000	5.12512	275.846	0.98372
355.6000	5.17696	275.858	0.983884
355.4000	5.23012	275.869	0.984019
355.2000	5.27278	275.873	0.98407
355.0000	5.31339	275.909	0.984538
354.8000	5.36731	275.917	0.984642
354.6000	5.45289	275.945	0.985011
354.4000	5.50288	275.941	0.984951
354.2000	5.55328	275.954	0.985121
354.0000	5.60606	275.957	0.985162
353.8000	5.66051	275.966	0.985283
353.6000	5.69755	275.971	0.98534
353.4000	5.73207	275.964	0.985256
353.2000	5.79219	275.966	0.985279
353.0000	5.8383	275.965	0.985268
352.8000	5.90157	275.978	0.985431
352.6000	5.96756	275.977	0.98542
352.4000	6.02722	275.989	0.985578
352.2000	6.09118	276.003	0.98576
352.0000	6.15489	276.008	0.985821
351.8000	6.20103	276.004	0.985769
351.6000	6.27182	276	0.985723
351.4000	6.31955	276.013	0.985895
351.2000	6.37088	276.017	0.985943
351.0000	6.42961	276.001	0.985736
350.8000	6.4859	276.016	0.985924
350.6000	6.52826	276.008	0.985828
350.4000	6.5658	276.024	0.986032
350.2000	6.61094	276.024	0.98603
350.0000	6.65061	276.025	0.986039
349.8000	6.69635	276.05	0.986375
349.6000	6.76583	276.064	0.986554
349.4000	6.83693	276.084	0.986805
349.2000	6.911	276.103	0.987053
349.0000	6.99751	276.104	0.987072
348.8000	7.07731	276.134	0.987457
348.6000	7.18602	276.144	0.987588
348.4000	7.24418	276.143	0.987576
348.2000	7.29687	276.136	0.987488
348.0000	7.38231	276.118	0.987252
347.8000	7.4399	276.119	0.987269
347.6000	7.52817	276.111	0.98716
347.4000	7.60885	276.1	0.987018
347.2000	7.69386	276.091	0.986898
347.0000	7.77165	276.084	0.986805
346.8000	7.85152	276.088	0.986863
346.6000	7.92457	276.096	0.986964
346.4000	8.00219	276.075	0.986695
346.2000	8.07205	276.082	0.986782
346.0000	8.12912	276.071	0.986639
345.8000	8.19897	276.064	0.986546
345.6000	8.28729	276.06	0.986498
345.4000	8.36254	276.039	0.986221
345.2000	8.43132	276.027	0.986074
345.0000	8.4894	276.02	0.985984
344.8000	8.57084	275.998	0.985699
344.6000	8.62906	275.982	0.98548
344.4000	8.70335	275.971	0.985345
344.2000	8.78025	275.951	0.985081
344.0000	8.84771	275.96	0.985199
343.8000	8.93891	275.954	0.985129
343.6000	9.00359	275.944	0.984989
343.4000	9.07583	275.937	0.984908
343.2000	9.13703	275.929	0.984793
343.0000	9.21109	275.907	0.984508
342.8000	9.26992	275.894	0.984345
342.6000	9.32337	275.876	0.984106
342.4000	9.38773	275.856	0.983858
342.2000	9.46104	275.848	0.98375
342.0000	9.52684	275.826	0.983458
341.8000	9.59557	275.813	0.983296
341.6000	9.61832	275.834	0.983563
341.4000	9.6721	275.818	0.983366
341.2000	9.71974	275.808	0.983236
341.0000	9.77271	275.798	0.9831
340.8000	9.8192	275.774	0.98279
340.6000	9.86658	275.763	0.982643
340.4000	9.92821	275.756	0.982554
340.2000	9.99359	275.734	0.982275
340.0000	10.0714	275.723	0.982125
339.8000	10.122	275.728	0.982198
339.6000	10.1654	275.735	0.982288
339.4000	10.2108	275.726	0.982172
339.2000	10.2682	275.726	0.982164
339.0000	10.3145	275.724	0.982143
338.8000	10.3206	275.704	0.981877
338.6000	10.3651	275.697	0.981796
338.4000	10.4035	275.685	0.981631
338.2000	10.4653	275.666	0.981392
338.0000	10.531	275.655	0.981251
337.8000	10.5733	275.662	0.981332
337.6000	10.6199	275.659	0.981295
337.4000	10.6959	275.648	0.98116
337.2000	10.7456	275.646	0.981122
337.0000	10.7894	275.648	0.98116
336.8000	10.8092	275.662	0.981342
336.6000	10.8227	275.672	0.981461
336.4000	10.8717	275.675	0.981508
336.2000	10.9018	275.683	0.981605
336.0000	10.9358	275.673	0.98148
335.8000	10.9581	275.676	0.981516
335.6000	11.0195	275.688	0.981671
335.4000	11.0874	275.681	0.981581
335.2000	11.1311	275.693	0.981743
335.0000	11.1322	275.694	0.981746
334.8000	11.1434	275.711	0.981978
334.6000	11.179	275.733	0.982262
334.4000	11.2069	275.746	0.982431
334.2000	11.2122	275.756	0.982553
334.0000	11.2145	275.76	0.982611
333.8000	11.2361	275.756	0.982555
333.6000	11.2875	275.769	0.982729
333.4000	11.3001	275.779	0.982856
333.2000	11.3269	275.786	0.982948
333.0000	11.3414	275.803	0.983167
332.8000	11.3744	275.814	0.983311
332.6000	11.3963	275.84	0.98365
332.4000	11.4317	275.856	0.983852
332.2000	11.4709	275.862	0.983927
332.0000	11.5112	275.862	0.983936
331.8000	11.5566	275.86	0.983902
331.6000	11.5797	275.86	0.983909
331.4000	11.6182	275.864	0.98396
331.2000	11.6703	275.876	0.984106
331.0000	11.6989	275.876	0.984109
330.8000	11.7242	275.891	0.98431
330.6000	11.7624	275.904	0.98447
330.4000	11.7998	275.927	0.984773
330.2000	11.844	275.933	0.984848
330.0000	11.8484	275.927	0.984777
329.8000	11.8507	275.938	0.984916
329.6000	11.8756	275.947	0.985035
329.4000	11.9194	275.945	0.985005
329.2000	11.9639	275.957	0.985164
329.0000	12.0234	275.963	0.985244
328.8000	12.0658	275.983	0.985506
328.6000	12.1169	276.009	0.985843
328.4000	12.1601	276.023	0.986016
328.2000	12.1671	276.048	0.986344
328.0000	12.1909	276.054	0.986421
327.8000	12.22	276.066	0.986577
327.6000	12.2367	276.079	0.98675
327.4000	12.2774	276.086	0.986833
327.2000	12.3255	276.1	0.98702
327.0000	12.3784	276.11	0.98715
326.8000	12.447	276.134	0.987461
326.6000	12.4853	276.162	0.987821
326.4000	12.5277	276.164	0.987843
326.2000	12.5719	276.161	0.987812
326.0000	12.6108	276.168	0.987904
325.8000	12.6801	276.156	0.987738
325.6000	12.7414	276.161	0.987804
325.4000	12.8015	276.156	0.987738
325.2000	12.8521	276.141	0.987552
325.0000	12.8946	276.135	0.987474
324.8000	12.9426	276.137	0.98749
324.6000	13.0025	276.113	0.987183
324.4000	13.0281	276.106	0.98709
324.2000	13.0612	276.086	0.986837
324.0000	13.0981	276.057	0.986458
323.8000	13.1275	276.023	0.986017
323.6000	13.1822	275.971	0.985339
323.4000	13.2224	275.929	0.984802
323.2000	13.2728	275.908	0.984524
323.0000	13.3437	275.888	0.984267
322.8000	13.4112	275.868	0.984013
322.6000	13.4597	275.886	0.984242
322.4000	13.5369	275.92	0.984688
322.2000	13.5605	275.965	0.985265
322.0000	13.6199	276.011	0.985863
321.8000	13.6608	276.074	0.98668
321.6000	13.7062	276.132	0.987435
321.4000	13.7616	276.194	0.988241
321.2000	13.8247	276.222	0.988597
321.0000	13.8879	276.24	0.988838
320.8000	13.9584	276.266	0.989169
320.6000	13.9975	276.276	0.989299
320.4000	14.0641	276.271	0.989241
320.2000	14.1259	276.266	0.989164
320.0000	14.1848	276.262	0.989117
319.8000	14.2184	276.277	0.989316
319.6000	14.2498	276.308	0.989716
319.4000	14.3038	276.321	0.989888
319.2000	14.3588	276.334	0.990056
319.0000	14.4107	276.354	0.99031
318.8000	14.434	276.377	0.990604
318.6000	14.4752	276.393	0.990815
318.4000	14.5238	276.401	0.990918
318.2000	14.5888	276.41	0.991044
318.0000	14.6258	276.407	0.991004
317.8000	14.6724	276.416	0.991115
317.6000	14.7145	276.431	0.991307
317.4000	14.7568	276.438	0.991404
317.2000	14.8217	276.447	0.991512
317.0000	14.8741	276.445	0.991493
316.8000	14.9114	276.435	0.991363
316.6000	14.962	276.423	0.991204
316.4000	14.9857	276.406	0.990986
316.2000	15.0086	276.411	0.991046
316.0000	15.0719	276.416	0.991115
315.8000	15.1161	276.418	0.991143
315.6000	15.1647	276.43	0.991295
315.4000	15.2122	276.44	0.991429
315.2000	15.2593	276.449	0.991545
315.0000	15.3455	276.447	0.991515
314.8000	15.4079	276.433	0.991335
314.6000	15.436	276.418	0.991137
314.4000	15.4859	276.405	0.990974
314.2000	15.5352	276.388	0.990746
314.0000	15.5742	276.368	0.990498
313.8000	15.6179	276.346	0.990213
313.6000	15.6367	276.323	0.989908
313.4000	15.6874	276.302	0.989643
313.2000	15.7374	276.278	0.989328
313.0000	15.7829	276.261	0.989108
312.8000	15.8344	276.26	0.989087
312.6000	15.9046	276.265	0.989161
312.4000	15.9649	276.284	0.989401
312.2000	16.0168	276.321	0.989878
312.0000	16.0735	276.341	0.990145
311.8000	16.1029	276.384	0.990699
311.6000	16.1435	276.427	0.991256
311.4000	16.2034	276.475	0.991879
311.2000	16.266	276.521	0.992482
311.0000	16.314	276.551	0.992871
310.8000	16.3513	276.595	0.993443
310.6000	16.3612	276.638	0.993991
310.4000	16.4164	276.669	0.994402
310.2000	16.4606	276.697	0.994763
310.0000	16.5118	276.709	0.994917
309.8000	16.5249	276.728	0.995169
309.6000	16.5916	276.753	0.995492
309.4000	16.6948	276.772	0.995731
309.2000	16.7512	276.789	0.99595
309.0000	16.792	276.809	0.996211
308.8000	16.8295	276.832	0.996514
308.6000	16.8984	276.861	0.996881
308.4000	16.9206	276.883	0.997172
308.2000	16.9667	276.906	0.997471
308.0000	16.9931	276.931	0.997793
307.8000	17.0298	276.945	0.997977
307.6000	17.0859	276.963	0.998208
307.4000	17.1104	276.984	0.998477
307.2000	17.1377	277.018	0.998917
307.0000	17.1641	277.044	0.999261
306.8000	17.193	277.064	0.999516
306.6000	17.2411	277.091	0.999874
306.4000	17.2879	277.106	1.00006
306.2000	17.3373	277.137	1.00047
306.0000	17.3832	277.155	1.00069
305.8000	17.431	277.165	1.00083
305.6000	17.484	277.199	1.00127
305.4000	17.5317	277.235	1.00174
305.2000	17.5585	277.257	1.00203
305.0000	17.6056	277.288	1.00242
304.8000	17.651	277.304	1.00264
304.6000	17.6646	277.325	1.00291
304.4000	17.6891	277.352	1.00326
304.2000	17.7322	277.369	1.00347
304.0000	17.7673	277.394	1.0038
303.8000	17.8025	277.434	1.00431
303.6000	17.8312	277.458	1.00463
303.4000	17.8403	277.485	1.00498
303.2000	17.9046	277.511	1.00532
303.0000	17.9225	277.532	1.00559
302.8000	17.9783	277.56	1.00595
302.6000	18.0211	277.576	1.00616
302.4000	18.0625	277.588	1.00632
302.2000	18.0923	277.619	1.00672
302.0000	18.1288	277.638	1.00696
301.8000	18.1859	277.67	1.00739
301.6000	18.2311	277.692	1.00766
301.4000	18.249	277.718	1.008
301.2000	18.2752	277.751	1.00843
301.0000	18.3046	277.765	1.00862
300.8000	18.3617	277.794	1.00898
300.6000	18.3764	277.822	1.00935
300.4000	18.4156	277.847	1.00968
300.2000	18.4577	277.874	1.01003
300.0000	18.5115	277.893	1.01027
299.8000	18.5641	277.922	1.01065
299.6000	18.5916	277.956	1.01108
299.4000	18.6239	277.985	1.01147
299.2000	18.6477	278.014	1.0119
299.0000	18.6436	278.05	1.01232
298.8000	18.6557	278.092	1.01278
298.6000	18.6708	278.125	1.01315
298.4000	18.7046	278.168	1.01362
298.2000	18.7157	278.196	1.01394
298.0000	18.7636	278.232	1.01434
297.8000	18.8097	278.257	1.01463
297.6000	18.8466	278.288	1.01497
297.4000	18.9181	278.32	1.01532
297.2000	18.917	278.333	1.01548
297.0000	18.9696	278.375	1.01593
296.8000	19.0148	278.419	1.01644
296.6000	19.0391	278.446	1.01673
296.4000	19.0645	278.487	1.01719
296.2000	19.0892	278.529	1.01766
296.0000	19.117	278.56	1.018
295.8000	19.1476	278.587	1.01831
295.6000	19.1528	278.612	1.01858
295.4000	19.1477	278.629	1.01878
295.2000	19.1754	278.655	1.01907
295.0000	19.2005	278.671	1.01924
294.8000	19.2329	278.697	1.01953
294.6000	19.2526	278.725	1.01984
294.4000	19.2875	278.772	1.02037
294.2000	19.3276	278.812	1.02081
294.0000	19.3822	278.861	1.02135
293.8000	19.4419	278.889	1.02167
293.6000	19.481	278.92	1.02202
293.4000	19.4939	278.943	1.02227
293.2000	19.5201	278.967	1.02254
293.0000	19.5379	278.988	1.02277
292.8000	19.5741	278.995	1.02285
292.6000	19.5862	279.02	1.02313
292.4000	19.5695	279.048	1.02344
292.2000	19.5767	279.056	1.02353
292.0000	19.6319	279.035	1.02329
291.8000	19.656	278.991	1.02281
291.6000	19.6694	278.927	1.0221
291.4000	19.6612	278.847	1.0212
291.2000	19.6809	278.771	1.02036
291.0000	19.7288	278.716	1.01974
290.8000	19.7304	278.721	1.0198
290.6000	19.7416	278.796	1.02063
290.4000	19.7728	278.913	1.02194
290.2000	19.7883	279.066	1.02364
290.0000	19.7942	279.248	1.02566
289.8000	19.8319	279.434	1.02774
289.6000	19.8337	279.6	1.02958
289.4000	19.8492	279.725	1.03098
289.2000	19.8328	279.809	1.03192
289.0000	19.8244	279.883	1.03273
288.8000	19.823	279.942	1.03339
288.6000	19.8069	280.008	1.03412
288.4000	19.7809	280.052	1.03462
288.2000	19.766	280.085	1.03498
288.0000	19.792	280.148	1.03568
287.8000	19.7751	280.206	1.03633
287.6000	19.761	280.286	1.03721
287.4000	19.7635	280.351	1.03794
287.2000	19.7475	280.398	1.03846
287.0000	19.7376	280.462	1.03917
286.8000	19.7216	280.535	1.03998
286.6000	19.6945	280.6	1.0407
286.4000	19.6633	280.661	1.04138
286.2000	19.6618	280.719	1.04203
286.0000	19.6431	280.784	1.04274
285.8000	19.6288	280.858	1.04357
285.6000	19.6059	280.933	1.04439
285.4000	19.5436	280.994	1.04507
285.2000	19.5103	281.07	1.04592
285.0000	19.4666	281.134	1.04663
284.8000	19.4327	281.199	1.04734
284.6000	19.3558	281.273	1.04817
284.4000	19.307	281.334	1.04885
284.2000	19.2497	281.41	1.04969
284.0000	19.249	281.478	1.05044
283.8000	19.1916	281.549	1.05123
283.6000	19.1378	281.619	1.05201
283.4000	19.1207	281.694	1.05283
283.2000	19.1161	281.761	1.05358
283.0000	19.1062	281.827	1.0543
282.8000	19.0323	281.892	1.05503
282.6000	18.9815	281.954	1.05571
282.4000	18.9413	282.012	1.05636
282.2000	18.8742	282.085	1.05717
282.0000	18.7877	282.152	1.0579
281.8000	18.7037	282.23	1.05877
281.6000	18.6301	282.304	1.05959
281.4000	18.5692	282.371	1.06032
281.2000	18.496	282.452	1.06123
281.0000	18.4412	282.52	1.06198
280.8000	18.3798	282.603	1.0629
280.6000	18.3344	282.685	1.0638
280.4000	18.2631	282.766	1.0647
280.2000	18.1922	282.815	1.06524
280.0000	18.1019	282.894	1.06611
279.8000	18.0009	282.978	1.06703
279.6000	17.9263	283.059	1.06793
279.4000	17.8286	283.113	1.06853
279.2000	17.7609	283.174	1.0692
279.0000	17.6788	283.256	1.07011
278.8000	17.6296	283.338	1.07101
278.6000	17.5562	283.402	1.07171
278.4000	17.5051	283.468	1.07245
278.2000	17.4774	283.534	1.07317
278.0000	17.41	283.603	1.07393
277.8000	17.3383	283.682	1.0748
277.6000	17.286	283.747	1.07553
277.4000	17.1999	283.81	1.07622
277.2000	17.1483	283.889	1.07709
277.0000	17.0371	283.95	1.07777
276.8000	16.9288	284.013	1.07846
276.6000	16.8378	284.067	1.07906
276.4000	16.7885	284.134	1.07979
276.2000	16.695	284.22	1.08074
276.0000	16.5872	284.295	1.08157
275.8000	16.4813	284.36	1.08228
275.6000	16.3961	284.439	1.08315
275.4000	16.3422	284.515	1.08399
275.2000	16.2599	284.59	1.08481
275.0000	16.1343	284.653	1.08551
274.8000	16.0707	284.718	1.08623
274.6000	16.0155	284.781	1.08691
274.4000	15.9275	284.84	1.08757
274.2000	15.8526	284.889	1.0881
274.0000	15.7839	284.94	1.08866
273.8000	15.7129	285	1.08933
273.6000	15.6351	285.057	1.08995
273.4000	15.5206	285.106	1.09049
273.2000	15.454	285.167	1.09116
273.0000	15.3718	285.234	1.0919
272.8000	15.2827	285.306	1.09269
272.6000	15.1607	285.374	1.09344
272.4000	15.1185	285.434	1.0941
272.2000	15.0439	285.51	1.09494
272.0000	14.9504	285.584	1.09575
271.8000	14.8642	285.649	1.09646
271.6000	14.7578	285.718	1.09721
271.4000	14.6736	285.795	1.09806
271.2000	14.5912	285.854	1.09871
271.0000	14.4901	285.92	1.09943
270.8000	14.4031	285.993	1.10023
270.6000	14.319	286.067	1.10105
270.4000	14.2234	286.147	1.10192
270.2000	14.1525	286.23	1.10284
270.0000	14.1017	286.313	1.10375
269.8000	13.9981	286.419	1.1049
269.6000	13.9358	286.5	1.10579
269.4000	13.8772	286.588	1.10676
269.2000	13.8234	286.679	1.10776
269.0000	13.7833	286.77	1.10876
268.8000	13.6825	286.869	1.10984
268.6000	13.6025	286.958	1.11081
268.4000	13.5305	287.061	1.11195
268.2000	13.4539	287.173	1.11317
268.0000	13.4026	287.285	1.1144
267.8000	13.3209	287.397	1.11562
267.6000	13.2641	287.499	1.11674
267.4000	13.2524	287.591	1.11774
267.2000	13.198	287.709	1.11903
267.0000	13.1573	287.808	1.12012
266.8000	13.1004	287.898	1.1211
266.6000	13.0437	288.006	1.12228
266.4000	13.0151	288.123	1.12356
266.2000	12.9461	288.236	1.12479
266.0000	12.8747	288.36	1.12614
265.8000	12.8332	288.482	1.12749
265.6000	12.7564	288.607	1.12884
265.4000	12.7356	288.734	1.13023
265.2000	12.7006	288.855	1.13155
265.0000	12.6265	288.974	1.13285
264.8000	12.5935	289.101	1.13423
264.6000	12.5555	289.215	1.13547
264.4000	12.5326	289.332	1.13675
264.2000	12.5445	289.466	1.13821
264.0000	12.5356	289.577	1.13942
263.8000	12.5265	289.701	1.14077
263.6000	12.5378	289.83	1.14217
263.4000	12.5098	289.958	1.14357
263.2000	12.52	290.097	1.14508
263.0000	12.5287	290.213	1.14635
262.8000	12.5261	290.355	1.14789
262.6000	12.5244	290.5	1.14947
262.4000	12.4982	290.636	1.15094
262.2000	12.4809	290.759	1.15227
262.0000	12.5334	290.867	1.15344
261.8000	12.5296	290.987	1.15476
261.6000	12.5072	291.09	1.15588
261.4000	12.5281	291.208	1.15715
261.2000	12.5424	291.327	1.15844
261.0000	12.5887	291.454	1.15982
260.8000	12.6352	291.579	1.16117
260.6000	12.6827	291.729	1.1628
260.4000	12.7293	291.871	1.16434
260.2000	12.7986	292.035	1.16612
260.0000	12.8601	292.185	1.16774
259.8000	12.9107	292.327	1.16928
259.6000	12.9769	292.48	1.17094
259.4000	13.0307	292.651	1.17279
259.2000	13.0724	292.814	1.17455
259.0000	13.1533	292.98	1.17634
258.8000	13.1894	293.126	1.17792
258.6000	13.2311	293.269	1.17947
258.4000	13.3083	293.409	1.18098
258.2000	13.3628	293.538	1.18237
258.0000	13.4185	293.664	1.18374
257.8000	13.4675	293.793	1.18513
257.6000	13.4991	293.923	1.18653
257.4000	13.5822	294.057	1.18797
257.2000	13.6694	294.179	1.18929
257.0000	13.7373	294.332	1.19094
256.8000	13.8487	294.472	1.19244
256.6000	13.8993	294.61	1.19393
256.4000	13.9895	294.756	1.1955
256.2000	14.0729	294.902	1.19708
256.0000	14.1435	295.048	1.19865
255.8000	14.2159	295.208	1.20037
255.6000	14.2742	295.356	1.20196
255.4000	14.3133	295.497	1.20348
255.2000	14.4003	295.617	1.20477
255.0000	14.4594	295.737	1.20606
254.8000	14.5293	295.873	1.20752
254.6000	14.5947	296	1.20888
254.4000	14.6693	296.123	1.2102
254.2000	14.7475	296.233	1.21138
254.0000	14.8355	296.37	1.21286
253.8000	14.9063	296.519	1.21445
253.6000	15.0057	296.638	1.21573
253.4000	15.0411	296.752	1.21696
253.2000	15.1294	296.87	1.21822
253.0000	15.1926	296.998	1.21958
252.8000	15.2934	297.12	1.22089
252.6000	15.3979	297.237	1.22216
252.4000	15.4383	297.356	1.22343
252.2000	15.5136	297.485	1.22481
252.0000	15.5725	297.618	1.22622
251.8000	15.6419	297.747	1.22761
251.6000	15.6724	297.877	1.229
251.4000	15.743	297.993	1.23024
251.2000	15.7981	298.113	1.23153
251.0000	15.8742	298.249	1.23298
250.8000	15.9197	298.366	1.23423
250.6000	15.9995	298.497	1.23562
250.4000	16.0713	298.631	1.23705
250.2000	16.1057	298.753	1.23836
250.0000	16.083	298.905	1.23998
